#Magnitudes for spectra_toy06_artisnebular calculated by wsynphot
#with vega calibration file: https://archive.stsci.edu/hlsps/reference-atlases/cdbs/calspec/alpha_lyr_stis_003.fits 
#and with scipy 1D interpolation kind='cubic'.
#U,B,V,R,I are Generic Bessell filters and J, H, K are 2MASS filters, taken from http://svo2.cab.inta-csic.es/theory/fps/index.php 
#The spectra file used was last modified at: 2022-03-04 17:08:05 UTC
#and had md5 hash: 65e39c06d97bad8d8bf5b98e798a3f4d
#
#NTIMES: 50
#NBANDS: 8
#time[d] U B V R I J H K
1.991600e+02 -13.552076 -13.918741 -13.978873 -12.671182 -11.757142 -10.189420 -11.350674 -14.027444
2.020300e+02 -13.502479 -13.881403 -13.933486 -12.616231 -11.708223 -10.154739 -11.310801 -14.009750
2.049300e+02 -13.457722 -13.838371 -13.891722 -12.552104 -11.670100 -10.121653 -11.250064 -13.980292
2.078700e+02 -13.396337 -13.794831 -13.847480 -12.488604 -11.633765 -10.012854 -11.186046 -13.937764
2.108600e+02 -13.335860 -13.755860 -13.805618 -12.428833 -11.574669 -9.970014 -11.093295 -13.906359
2.138900e+02 -13.280412 -13.711852 -13.754790 -12.371965 -11.543474 -9.928002 -11.072598 -13.882499
2.169700e+02 -13.224328 -13.670711 -13.712923 -12.313243 -11.506146 -9.938499 -11.026926 -13.861402
2.200900e+02 -13.161757 -13.629061 -13.671315 -12.239505 -11.460418 -9.809296 -10.998164 -13.830116
2.232500e+02 -13.106892 -13.587414 -13.622735 -12.181012 -11.422083 -9.790922 -10.938200 -13.804360
2.264600e+02 -13.049580 -13.544002 -13.579622 -12.124004 -11.388206 -9.736658 -10.891638 -13.764966
2.297100e+02 -12.989743 -13.505372 -13.535634 -12.061029 -11.330541 -9.710436 -10.853994 -13.751389
2.330100e+02 -12.928392 -13.460716 -13.490690 -11.997065 -11.298322 -9.643549 -10.790118 -13.702562
2.363600e+02 -12.861162 -13.417243 -13.447477 -11.933416 -11.252953 -9.611528 -10.739415 -13.702095
2.397600e+02 -12.796804 -13.375094 -13.400869 -11.873695 -11.224440 -9.586970 -10.658447 -13.672028
2.432100e+02 -12.739221 -13.330771 -13.354841 -11.818086 -11.168153 -9.625801 -10.668333 -13.640747
2.467000e+02 -12.680000 -13.284151 -13.306918 -11.752273 -11.135684 -9.543906 -10.641094 -13.595865
2.502500e+02 -12.620245 -13.240496 -13.262045 -11.681642 -11.085289 -9.568114 -10.586125 -13.592439
2.538500e+02 -12.547054 -13.194009 -13.211764 -11.612374 -11.053614 -9.493803 -10.497043 -13.529443
2.575000e+02 -12.480616 -13.154462 -13.162823 -11.550608 -11.002503 -9.529211 -10.523761 -13.523186
2.612000e+02 -12.413393 -13.103968 -13.113651 -11.482550 -10.981417 -9.396383 -10.446315 -13.509000
2.649500e+02 -12.335902 -13.054321 -13.065630 -11.415335 -10.932897 -9.448558 -10.442200 -13.461952
2.687600e+02 -12.278361 -13.010992 -13.021366 -11.359914 -10.895543 -9.432965 -10.376164 -13.467777
2.726200e+02 -12.208189 -12.964333 -12.974283 -11.282156 -10.861409 -9.416118 -10.442678 -13.408661
2.765400e+02 -12.125882 -12.917267 -12.918966 -11.214354 -10.809149 -9.402061 -10.420307 -13.411963
2.805100e+02 -12.066922 -12.872704 -12.874647 -11.152098 -10.783462 -9.414476 -10.365016 -13.351007
2.845500e+02 -11.982075 -12.822629 -12.822938 -11.087737 -10.729920 -9.387584 -10.371221 -13.328950
2.886400e+02 -11.922714 -12.774183 -12.776408 -11.018987 -10.728660 -9.397751 -10.281213 -13.292265
2.927900e+02 -11.850057 -12.727898 -12.726877 -10.952426 -10.654185 -9.423288 -10.290498 -13.276416
2.969900e+02 -11.780641 -12.678177 -12.675113 -10.888241 -10.638110 -9.387967 -10.313345 -13.236179
3.012600e+02 -11.706188 -12.627976 -12.625995 -10.819157 -10.598147 -9.468500 -10.313238 -13.200644
3.055900e+02 -11.643886 -12.576128 -12.576001 -10.759965 -10.562268 -9.421513 -10.319143 -13.161948
3.099900e+02 -11.570005 -12.525289 -12.513750 -10.687894 -10.549841 -9.436116 -10.302843 -13.129379
3.144400e+02 -11.507244 -12.473278 -12.461307 -10.615884 -10.510796 -9.474472 -10.334830 -13.077767
3.189600e+02 -11.441261 -12.424320 -12.413065 -10.556513 -10.455697 -9.492594 -10.320713 -13.092992
3.235500e+02 -11.349919 -12.366701 -12.359109 -10.482495 -10.438689 -9.559691 -10.330093 -13.011764
3.281900e+02 -11.262052 -12.315906 -12.307492 -10.410267 -10.408491 -9.582921 -10.384717 -12.987925
3.329100e+02 -11.185422 -12.261248 -12.249533 -10.349908 -10.382829 -9.585139 -10.402864 -12.962991
3.377000e+02 -11.116104 -12.208970 -12.195700 -10.277809 -10.323508 -9.615504 -10.414688 -12.942995
3.425500e+02 -11.033478 -12.148266 -12.133318 -10.218720 -10.287843 -9.605869 -10.431123 -12.885233
3.474800e+02 -10.960799 -12.092249 -12.080524 -10.146251 -10.255072 -9.674596 -10.440011 -12.861487
3.524700e+02 -10.887399 -12.036331 -12.026723 -10.083715 -10.239649 -9.701962 -10.483522 -12.834888
3.575400e+02 -10.812767 -11.977919 -11.966320 -10.018214 -10.194429 -9.731635 -10.549645 -12.767582
3.626800e+02 -10.750889 -11.921707 -11.908371 -9.961310 -10.181946 -9.726733 -10.561665 -12.734709
3.678900e+02 -10.678472 -11.863314 -11.842834 -9.872927 -10.124407 -9.758924 -10.525598 -12.714300
3.731800e+02 -10.603735 -11.804568 -11.783239 -9.800219 -10.111592 -9.786524 -10.577738 -12.633804
3.785400e+02 -10.521807 -11.741215 -11.727555 -9.735176 -10.079970 -9.903570 -10.616510 -12.609771
3.839800e+02 -10.439799 -11.678429 -11.662819 -9.686001 -10.064842 -9.877833 -10.705859 -12.548711
3.895000e+02 -10.361779 -11.616278 -11.589445 -9.608940 -10.017099 -9.954695 -10.735670 -12.496337
3.951000e+02 -10.287773 -11.548231 -11.525861 -9.566020 -10.007171 -10.006173 -10.737368 -12.448331
4.007800e+02 -10.206093 -11.483794 -11.467582 -9.496340 -9.979236 -10.048553 -10.810809 -12.392256
