#Magnitudes for spectra_toy06_sedona calculated by wsynphot
#with vega calibration file: https://archive.stsci.edu/hlsps/reference-atlases/cdbs/calspec/alpha_lyr_stis_003.fits 
#and with scipy 1D interpolation kind='cubic'.
#U,B,V,R,I are Generic Bessell filters and J, H, K are 2MASS filters, taken from http://svo2.cab.inta-csic.es/theory/fps/index.php 
#The spectra file used was last modified at: 2022-03-04 17:08:05 UTC
#and had md5 hash: 833dd200db02271e40d40d49a2d4a12c
#
#NTIMES: 250
#NBANDS: 8
#time[d] U B V R I J H K
5.000000e-01 NaN NaN NaN NaN NaN NaN NaN NaN
1.500000e+00 -12.202184 -12.139947 -12.737607 -13.162636 -13.648738 -14.295605 -14.394070 -14.899870
2.500000e+00 -13.672162 -14.270014 -14.784709 -15.081865 -15.086362 -15.781310 -15.996051 -16.086314
3.500000e+00 -15.884197 -15.883399 -16.044786 -16.250932 -16.522664 -16.544495 -16.231371 -16.344688
4.500000e+00 -16.944969 -16.651069 -16.736857 -16.968085 -17.190568 -16.850288 -16.760245 -16.628399
5.500000e+00 -17.576008 -17.182491 -17.234141 -17.444911 -17.686997 -17.116297 -17.114289 -16.826227
6.500000e+00 -18.020295 -17.587751 -17.601954 -17.817449 -18.065587 -17.373453 -17.272197 -17.116540
7.500000e+00 -18.416478 -17.948687 -17.941576 -18.123039 -18.324655 -17.633351 -17.432560 -17.312468
8.500000e+00 -18.735558 -18.214457 -18.197426 -18.354941 -18.494973 -17.787634 -17.547776 -17.441071
9.500000e+00 -18.972383 -18.439758 -18.409293 -18.529448 -18.615688 -17.913885 -17.571822 -17.570704
1.050000e+01 -19.161657 -18.632721 -18.583966 -18.672915 -18.740752 -17.981716 -17.588449 -17.517343
1.150000e+01 -19.300193 -18.786978 -18.736841 -18.790005 -18.853355 -18.038168 -17.626918 -17.480233
1.250000e+01 -19.404790 -18.909598 -18.860906 -18.881544 -18.927126 -18.085567 -17.573670 -17.500560
1.350000e+01 -19.474524 -19.005813 -18.969875 -18.951480 -18.984990 -18.074705 -17.570740 -17.447190
1.450000e+01 -19.516620 -19.087609 -19.060704 -18.996953 -19.027987 -18.061025 -17.521196 -17.365769
1.550000e+01 -19.527170 -19.149411 -19.138068 -19.040406 -19.064618 -18.041101 -17.444774 -17.317064
1.650000e+01 -19.516198 -19.197146 -19.189764 -19.063614 -19.099658 -17.996569 -17.350112 -17.150118
1.750000e+01 -19.483522 -19.226670 -19.236492 -19.087809 -19.131231 -17.911395 -17.325727 -17.146789
1.850000e+01 -19.411434 -19.236929 -19.262004 -19.097433 -19.147452 -17.878953 -17.303476 -16.960047
1.950000e+01 -19.317656 -19.240245 -19.280424 -19.096649 -19.165559 -17.800410 -17.231707 -16.939658
2.050000e+01 -19.196783 -19.233976 -19.295193 -19.094786 -19.179746 -17.766711 -17.197355 -16.828671
2.150000e+01 -19.072260 -19.216678 -19.294627 -19.081598 -19.183769 -17.672471 -17.191230 -16.803608
2.250000e+01 -18.940236 -19.189071 -19.287465 -19.062418 -19.188961 -17.667689 -17.192865 -16.818716
2.350000e+01 -18.802387 -19.152691 -19.268263 -19.036470 -19.193121 -17.590904 -17.211298 -16.861831
2.450000e+01 -18.671299 -19.103599 -19.244086 -19.003571 -19.184582 -17.579135 -17.270709 -16.927540
2.550000e+01 -18.533048 -19.040696 -19.205952 -18.958159 -19.177759 -17.543202 -17.356280 -17.063553
2.650000e+01 -18.398731 -18.970137 -19.161936 -18.909736 -19.139687 -17.496371 -17.449030 -17.186876
2.750000e+01 -18.238385 -18.875570 -19.111205 -18.853582 -19.097460 -17.447798 -17.610893 -17.313209
2.850000e+01 -18.078401 -18.770269 -19.053179 -18.790827 -19.041764 -17.434888 -17.773117 -17.488498
2.950000e+01 -17.902485 -18.644917 -18.993590 -18.722939 -18.987802 -17.414521 -17.982794 -17.677293
3.050000e+01 -17.738437 -18.525252 -18.928989 -18.663820 -18.939028 -17.402035 -18.151162 -17.855488
3.150000e+01 -17.562230 -18.397889 -18.866888 -18.605833 -18.885261 -17.427897 -18.298309 -18.025106
3.250000e+01 -17.357267 -18.270156 -18.800434 -18.562408 -18.840286 -17.452715 -18.426808 -18.168549
3.350000e+01 -17.158185 -18.136531 -18.737912 -18.527429 -18.809498 -17.534352 -18.525159 -18.267644
3.450000e+01 -16.925717 -18.000207 -18.671626 -18.506371 -18.780360 -17.609940 -18.628182 -18.394044
3.550000e+01 -16.686528 -17.855729 -18.599734 -18.493336 -18.761965 -17.679973 -18.702381 -18.453184
3.650000e+01 -16.440276 -17.722374 -18.538945 -18.485927 -18.753948 -17.775590 -18.761709 -18.531066
3.750000e+01 -16.226182 -17.592650 -18.476136 -18.485412 -18.756328 -17.839998 -18.822240 -18.587677
3.850000e+01 -16.017913 -17.467683 -18.421471 -18.477251 -18.756572 -17.883036 -18.856413 -18.621981
3.950000e+01 -15.819028 -17.345655 -18.356670 -18.471752 -18.754356 -17.940169 -18.876420 -18.679672
4.050000e+01 -15.639829 -17.247898 -18.303199 -18.459730 -18.754293 -17.968646 -18.877376 -18.694072
4.150000e+01 -15.458620 -17.146565 -18.244641 -18.441313 -18.752072 -17.992867 -18.879890 -18.697685
4.250000e+01 -15.304336 -17.055289 -18.187515 -18.420685 -18.733277 -18.002680 -18.895038 -18.732153
4.350000e+01 -15.138310 -16.973093 -18.123903 -18.396940 -18.723465 -18.012149 -18.869300 -18.717873
4.450000e+01 -15.007999 -16.893013 -18.068467 -18.363679 -18.705584 -18.014233 -18.848751 -18.701641
4.550000e+01 -14.871528 -16.820161 -18.017768 -18.334996 -18.680700 -18.025488 -18.844362 -18.701790
4.650000e+01 -14.708491 -16.744569 -17.966433 -18.294442 -18.654822 -18.012878 -18.836758 -18.679326
4.750000e+01 -14.608930 -16.684288 -17.907324 -18.245029 -18.625475 -17.990024 -18.805654 -18.674716
4.850000e+01 -14.452559 -16.619662 -17.855617 -18.198133 -18.592388 -17.966051 -18.788688 -18.620839
4.950000e+01 -14.364098 -16.575024 -17.805651 -18.152211 -18.554900 -17.935987 -18.758251 -18.577774
5.050000e+01 -14.225607 -16.527445 -17.757222 -18.104992 -18.521498 -17.897750 -18.717135 -18.559382
5.150000e+01 -14.090403 -16.476966 -17.711403 -18.051078 -18.478181 -17.860424 -18.691117 -18.507381
5.250000e+01 -13.933438 -16.437151 -17.666681 -18.001408 -18.439061 -17.789231 -18.661022 -18.470275
5.350000e+01 -13.855554 -16.406782 -17.616248 -17.951550 -18.389058 -17.738466 -18.635468 -18.424695
5.450000e+01 -13.717077 -16.367773 -17.575079 -17.891114 -18.353351 -17.673929 -18.598332 -18.405006
5.550000e+01 -13.566682 -16.328998 -17.535182 -17.839756 -18.305955 -17.602685 -18.569405 -18.336805
5.650000e+01 -13.450350 -16.293395 -17.493637 -17.797124 -18.265718 -17.501244 -18.527495 -18.308119
5.750000e+01 -13.331806 -16.249872 -17.455105 -17.751687 -18.226978 -17.419822 -18.496832 -18.249428
5.850000e+01 -13.181632 -16.224440 -17.421770 -17.707043 -18.193055 -17.323076 -18.450667 -18.209746
5.950000e+01 -13.020577 -16.185068 -17.389199 -17.662226 -18.150906 -17.251478 -18.424312 -18.173073
6.050000e+01 -12.850525 -16.145558 -17.353306 -17.609707 -18.113684 -17.152222 -18.385019 -18.089673
6.150000e+01 -12.675189 -16.113952 -17.317971 -17.569024 -18.081000 -17.060464 -18.345171 -18.078427
6.250000e+01 -12.545286 -16.076330 -17.286569 -17.525211 -18.047719 -16.999844 -18.322722 -18.030587
6.350000e+01 -12.423358 -16.040547 -17.251282 -17.476615 -18.016936 -16.931813 -18.288111 -18.021851
6.450000e+01 -12.185233 -15.997961 -17.216865 -17.441114 -17.995619 -16.863729 -18.257669 -17.983828
6.550000e+01 -12.055054 -15.948103 -17.180937 -17.395578 -17.958535 -16.796554 -18.185551 -17.946181
6.650000e+01 -11.826313 -15.927937 -17.147098 -17.359464 -17.935890 -16.732437 -18.139024 -17.980245
6.750000e+01 -11.762170 -15.870627 -17.105186 -17.308714 -17.905276 -16.681130 -18.115997 -17.945648
6.850000e+01 -11.553560 -15.834990 -17.067317 -17.269264 -17.872058 -16.641471 -18.080147 -17.961451
6.950000e+01 -11.461635 -15.789845 -17.022191 -17.226853 -17.849982 -16.593193 -18.029969 -17.910746
7.050000e+01 -11.311906 -15.741814 -16.979158 -17.185057 -17.824028 -16.549134 -17.979212 -17.892660
7.150000e+01 -11.129222 -15.697564 -16.941942 -17.151178 -17.793088 -16.518555 -17.955830 -17.898159
7.250000e+01 -11.051276 -15.651761 -16.884807 -17.114954 -17.767024 -16.475993 -17.908238 -17.931242
7.350000e+01 -10.924543 -15.604292 -16.834094 -17.078072 -17.736922 -16.471057 -17.875822 -17.912370
7.450000e+01 -10.823054 -15.554432 -16.793185 -17.044823 -17.716155 -16.444184 -17.809254 -17.907041
7.550000e+01 -10.526054 -15.505748 -16.751222 -17.020955 -17.691296 -16.439010 -17.780246 -17.907583
7.650000e+01 -10.498860 -15.430580 -16.703274 -16.991402 -17.671388 -16.443705 -17.723908 -17.955226
7.750000e+01 -10.374971 -15.390289 -16.646231 -16.961733 -17.638388 -16.441219 -17.653695 -17.961558
7.850000e+01 -10.202601 -15.322267 -16.610604 -16.945793 -17.614385 -16.439985 -17.613553 -17.966301
7.950000e+01 -10.084896 -15.260399 -16.558820 -16.914189 -17.589591 -16.463126 -17.562672 -17.980080
8.050000e+01 -10.070681 -15.196232 -16.505725 -16.902507 -17.567897 -16.464875 -17.531951 -17.981894
8.150000e+01 -9.793473 -15.127391 -16.464949 -16.872746 -17.538305 -16.484337 -17.483375 -17.981551
8.250000e+01 -9.733184 -15.041920 -16.407901 -16.855865 -17.518509 -16.513559 -17.388816 -17.994169
8.350000e+01 -9.604700 -14.980950 -16.361862 -16.826436 -17.487113 -16.547740 -17.359023 -17.953571
8.450000e+01 -9.633223 -14.886823 -16.307397 -16.815926 -17.469419 -16.583651 -17.333260 -17.928876
8.550000e+01 -9.181976 -14.801233 -16.246232 -16.790277 -17.451530 -16.612520 -17.294064 -17.910626
8.650000e+01 -9.300397 -14.688528 -16.211033 -16.771915 -17.430080 -16.667631 -17.250869 -17.884806
8.750000e+01 -9.139984 -14.589201 -16.146473 -16.746019 -17.405952 -16.703767 -17.232605 -17.872062
8.850000e+01 -8.883695 -14.494252 -16.107351 -16.729166 -17.377860 -16.747565 -17.182314 -17.833725
8.950000e+01 -8.479216 -14.401912 -16.040031 -16.699150 -17.361922 -16.807924 -17.139105 -17.806491
9.050000e+01 -8.313219 -14.285962 -16.006055 -16.685009 -17.343327 -16.855902 -17.076043 -17.793633
9.150000e+01 -8.299630 -14.183948 -15.941441 -16.660742 -17.330503 -16.902965 -17.068069 -17.769242
9.250000e+01 -8.576666 -14.065854 -15.890468 -16.630681 -17.299501 -16.943914 -17.047076 -17.734879
9.350000e+01 -8.415760 -13.959765 -15.832615 -16.602388 -17.277456 -17.002975 -17.007379 -17.702290
9.450000e+01 -8.477545 -13.839644 -15.785905 -16.579908 -17.271120 -17.049651 -16.934357 -17.693333
9.550000e+01 -7.714449 -13.712758 -15.739464 -16.554367 -17.244365 -17.086573 -16.949547 -17.638744
9.650000e+01 -7.740406 -13.631489 -15.679655 -16.519997 -17.219478 -17.120317 -16.880673 -17.620080
9.750000e+01 -7.042306 -13.537612 -15.639058 -16.487982 -17.200037 -17.175268 -16.859966 -17.575284
9.850000e+01 -7.086214 -13.411402 -15.587985 -16.463521 -17.196628 -17.199352 -16.828880 -17.577090
9.950000e+01 -7.532597 -13.298589 -15.519694 -16.440481 -17.176202 -17.230825 -16.784805 -17.527331
1.005000e+02 -6.795348 -13.179189 -15.477319 -16.403730 -17.147088 -17.267357 -16.743950 -17.509359
1.015000e+02 -6.514520 -13.098963 -15.434134 -16.367786 -17.121449 -17.286953 -16.701532 -17.514059
1.025000e+02 -6.730784 -12.978403 -15.373832 -16.339727 -17.103091 -17.311452 -16.695472 -17.445659
1.035000e+02 -5.584372 -12.856340 -15.315605 -16.302226 -17.082679 -17.320627 -16.649121 -17.433893
1.045000e+02 -6.354589 -12.753772 -15.270875 -16.276133 -17.072550 -17.340533 -16.611300 -17.408608
1.055000e+02 -5.709217 -12.625344 -15.216077 -16.248270 -17.049851 -17.354346 -16.587706 -17.386213
1.065000e+02 -6.417766 -12.542712 -15.160484 -16.207156 -17.039426 -17.381269 -16.551409 -17.365673
1.075000e+02 -6.723013 -12.367245 -15.111854 -16.183201 -17.008337 -17.395318 -16.494206 -17.354133
1.085000e+02 -5.264349 -12.269933 -15.061288 -16.140694 -17.002366 -17.401522 -16.487146 -17.338013
1.095000e+02 -6.130032 -12.173980 -14.996827 -16.112432 -16.982268 -17.411144 -16.453723 -17.325436
1.105000e+02 -6.000572 -12.017649 -14.921933 -16.077462 -16.965923 -17.407052 -16.410851 -17.281390
1.115000e+02 -4.853935 -11.894906 -14.878844 -16.050358 -16.961933 -17.427482 -16.390259 -17.238574
1.125000e+02 -5.393000 -11.764793 -14.800009 -16.008252 -16.940617 -17.417438 -16.382237 -17.214271
1.135000e+02 -4.085240 -11.667374 -14.734715 -15.972738 -16.919628 -17.436896 -16.368303 -17.188010
1.145000e+02 -3.157024 -11.505024 -14.658244 -15.933911 -16.907443 -17.432557 -16.324664 -17.192092
1.155000e+02 -1.373491 -11.431069 -14.582254 -15.895895 -16.896631 -17.426498 -16.267650 -17.160535
1.165000e+02 -4.250010 -11.254095 -14.518280 -15.859063 -16.884888 -17.413716 -16.264364 -17.130873
1.175000e+02 -5.103238 -11.111129 -14.441355 -15.814614 -16.863284 -17.428452 -16.208497 -17.118529
1.185000e+02 -3.159953 -11.017988 -14.367373 -15.781049 -16.859254 -17.423978 -16.197384 -17.083001
1.195000e+02 -3.321831 -10.932227 -14.296558 -15.736560 -16.832608 -17.417329 -16.207692 -17.108600
1.205000e+02 NaN -10.834120 -14.231227 -15.685982 -16.826982 -17.413981 -16.167521 -17.049722
1.215000e+02 -3.291992 -10.705152 -14.151122 -15.653182 -16.800774 -17.401536 -16.189230 -16.990852
1.225000e+02 -4.401844 -10.628733 -14.092619 -15.608696 -16.787828 -17.390711 -16.166048 -17.004436
1.235000e+02 -4.969056 -10.459461 -14.024382 -15.570597 -16.766334 -17.388140 -16.126009 -16.972217
1.245000e+02 -0.071712 -10.474557 -13.947580 -15.523253 -16.758175 -17.368551 -16.108758 -16.953976
1.255000e+02 -3.585814 -10.384761 -13.893345 -15.481086 -16.728465 -17.326167 -16.139769 -16.938008
1.265000e+02 -4.430321 -10.328069 -13.813473 -15.443079 -16.709226 -17.313403 -16.104619 -16.900550
1.275000e+02 NaN -10.243944 -13.789177 -15.385820 -16.685100 -17.290966 -16.063869 -16.891804
1.285000e+02 -3.547629 -10.190470 -13.723803 -15.352143 -16.658029 -17.266223 -16.056988 -16.909529
1.295000e+02 NaN -10.151630 -13.675833 -15.313568 -16.637194 -17.242931 -16.059147 -16.868755
1.305000e+02 NaN -9.955596 -13.592401 -15.257104 -16.594688 -17.221009 -16.036342 -16.821074
1.315000e+02 -5.162546 -10.095194 -13.565092 -15.225202 -16.576718 -17.204466 -16.028564 -16.811773
1.325000e+02 NaN -10.082262 -13.479374 -15.185975 -16.551407 -17.168345 -16.009605 -16.790952
1.335000e+02 NaN -9.930493 -13.439807 -15.153170 -16.510999 -17.156566 -15.997484 -16.750930
1.345000e+02 -4.803445 -9.928312 -13.372905 -15.098378 -16.477750 -17.118567 -15.988931 -16.731204
1.355000e+02 -3.452868 -9.711064 -13.357685 -15.067927 -16.437392 -17.102982 -15.956034 -16.743620
1.365000e+02 NaN -9.718865 -13.303481 -15.030959 -16.418091 -17.084259 -15.942525 -16.714822
1.375000e+02 -3.555704 -9.773647 -13.232009 -14.985956 -16.391917 -17.060533 -15.917083 -16.707844
1.385000e+02 -4.464358 -9.784758 -13.220795 -14.947002 -16.357050 -17.047362 -15.872196 -16.706606
1.395000e+02 -5.279776 -9.626646 -13.181180 -14.912138 -16.322310 -17.033953 -15.880368 -16.632165
1.405000e+02 -0.995771 -9.792118 -13.134334 -14.891809 -16.302249 -17.019629 -15.827176 -16.629182
1.415000e+02 NaN -9.707388 -13.130518 -14.848715 -16.274875 -16.991804 -15.826922 -16.589225
1.425000e+02 NaN -9.642394 -13.052144 -14.828585 -16.250492 -16.985039 -15.803154 -16.580717
1.435000e+02 NaN -9.614965 -13.053518 -14.793325 -16.227260 -16.974181 -15.730829 -16.564588
1.445000e+02 NaN -9.634098 -13.014103 -14.772540 -16.200857 -16.956137 -15.700648 -16.502953
1.455000e+02 NaN -9.703999 -12.978872 -14.756648 -16.188990 -16.945539 -15.687522 -16.501196
1.465000e+02 -4.622442 -9.536639 -12.969505 -14.739401 -16.172041 -16.920660 -15.650304 -16.512935
1.475000e+02 NaN -9.662561 -12.958098 -14.710949 -16.142128 -16.909399 -15.634041 -16.461282
1.485000e+02 NaN -9.489002 -12.921745 -14.700969 -16.121526 -16.893742 -15.636566 -16.433457
1.495000e+02 NaN -9.481010 -12.894034 -14.658982 -16.104384 -16.892501 -15.581782 -16.438127
1.505000e+02 -0.909732 -9.459584 -12.870861 -14.663092 -16.098983 -16.854917 -15.548343 -16.412476
1.515000e+02 NaN -9.500034 -12.850777 -14.627528 -16.074552 -16.859651 -15.578425 -16.348569
1.525000e+02 1.392422 -9.504230 -12.820287 -14.593684 -16.050787 -16.836332 -15.505048 -16.313187
1.535000e+02 NaN -9.451697 -12.830683 -14.586121 -16.042950 -16.826083 -15.515763 -16.307236
1.545000e+02 -2.685592 -9.433423 -12.821000 -14.562983 -16.024856 -16.824867 -15.493145 -16.292359
1.555000e+02 1.425638 -9.386145 -12.754096 -14.539855 -16.006966 -16.801590 -15.478240 -16.262105
1.565000e+02 NaN -9.383242 -12.728695 -14.510185 -15.992061 -16.800268 -15.441674 -16.218388
1.575000e+02 -3.216580 -9.340836 -12.722482 -14.499534 -15.962924 -16.797077 -15.442954 -16.224942
1.585000e+02 -0.818178 -9.435902 -12.687903 -14.453550 -15.955171 -16.772277 -15.406471 -16.219091
1.595000e+02 NaN -9.403334 -12.681301 -14.456437 -15.941367 -16.763784 -15.436937 -16.204875
1.605000e+02 NaN -9.303019 -12.654434 -14.431416 -15.908253 -16.755413 -15.406480 -16.173812
1.615000e+02 NaN -9.299749 -12.643003 -14.412454 -15.888507 -16.740823 -15.397734 -16.133468
1.625000e+02 NaN -9.365096 -12.621782 -14.394448 -15.881738 -16.721232 -15.406078 -16.097649
1.635000e+02 NaN -9.393330 -12.551318 -14.369075 -15.860976 -16.712965 -15.406167 -16.073203
1.645000e+02 NaN -9.295233 -12.557229 -14.342675 -15.842224 -16.699073 -15.347495 -16.069660
1.655000e+02 NaN -9.207124 -12.521569 -14.314808 -15.824261 -16.688305 -15.364761 -16.063324
1.665000e+02 NaN -9.288194 -12.503308 -14.293237 -15.812455 -16.669895 -15.365307 -16.068726
1.675000e+02 NaN -9.166988 -12.449243 -14.284102 -15.806702 -16.657668 -15.304526 -16.035810
1.685000e+02 -2.831317 -9.280447 -12.468822 -14.249061 -15.773554 -16.644958 -15.333932 -16.005324
1.695000e+02 NaN -9.154705 -12.437155 -14.222170 -15.750975 -16.645164 -15.256129 -16.008844
1.705000e+02 NaN -9.264840 -12.473767 -14.217155 -15.740894 -16.627881 -15.282324 -15.995862
1.715000e+02 NaN -9.253705 -12.381315 -14.181309 -15.724649 -16.613366 -15.271256 -15.961779
1.725000e+02 NaN -9.139475 -12.370644 -14.162442 -15.714068 -16.598537 -15.230461 -15.944953
1.735000e+02 NaN -9.153716 -12.310521 -14.139466 -15.700413 -16.597589 -15.277477 -15.892278
1.745000e+02 1.622053 -9.023146 -12.333944 -14.122387 -15.670230 -16.577208 -15.248532 -15.885600
1.755000e+02 NaN -9.116726 -12.292498 -14.097735 -15.655887 -16.566678 -15.186044 -15.887178
1.765000e+02 1.629946 -9.176333 -12.273268 -14.075854 -15.641193 -16.565795 -15.188261 -15.868735
1.775000e+02 NaN -9.093576 -12.234642 -14.045010 -15.624869 -16.547234 -15.237364 -15.822714
1.785000e+02 NaN -8.999082 -12.198662 -14.042946 -15.620670 -16.536713 -15.192609 -15.787963
1.795000e+02 NaN -9.164519 -12.219882 -14.021296 -15.595562 -16.532243 -15.237473 -15.764884
1.805000e+02 NaN -9.091520 -12.177312 -13.989717 -15.589808 -16.519207 -15.254078 -15.772709
1.815000e+02 -4.030890 -9.192949 -12.188745 -13.976973 -15.551111 -16.514583 -15.175399 -15.734603
1.825000e+02 NaN -9.105884 -12.173890 -13.946892 -15.555198 -16.503384 -15.211246 -15.734387
1.835000e+02 NaN -9.040967 -12.127610 -13.941251 -15.520556 -16.486870 -15.203406 -15.683122
1.845000e+02 1.697977 -9.065142 -12.059548 -13.914396 -15.498953 -16.463800 -15.154533 -15.644800
1.855000e+02 -2.778689 -9.003714 -12.080987 -13.877514 -15.506280 -16.471987 -15.155559 -15.651120
1.865000e+02 NaN -9.086992 -12.042519 -13.881810 -15.499305 -16.462741 -15.172217 -15.637608
1.875000e+02 NaN -8.935728 -12.016743 -13.831117 -15.471862 -16.432246 -15.118669 -15.596952
1.885000e+02 NaN -9.071351 -12.010697 -13.813318 -15.443365 -16.419419 -15.147374 -15.594836
1.895000e+02 -3.192495 -9.034535 -11.984422 -13.800709 -15.434365 -16.427573 -15.082097 -15.560064
1.905000e+02 -3.195985 -9.143924 -11.984454 -13.788633 -15.428524 -16.410231 -15.158829 -15.546671
1.915000e+02 1.768047 -9.028248 -11.922809 -13.749365 -15.412205 -16.395131 -15.154789 -15.519103
1.925000e+02 NaN -9.026266 -11.946796 -13.735220 -15.410950 -16.386435 -15.115952 -15.500815
1.935000e+02 NaN -8.936611 -11.939637 -13.718391 -15.380334 -16.371239 -15.105927 -15.511977
1.945000e+02 NaN -9.062465 -11.883096 -13.678584 -15.362245 -16.347659 -15.088458 -15.456287
1.955000e+02 NaN -8.939068 -11.861306 -13.652281 -15.351823 -16.346468 -15.111063 -15.456388
1.965000e+02 NaN -9.040329 -11.842228 -13.647925 -15.345409 -16.323732 -15.099385 -15.417639
1.975000e+02 -0.407246 -8.840149 -11.807120 -13.618954 -15.330677 -16.333589 -15.068258 -15.349047
1.985000e+02 NaN -8.885578 -11.790236 -13.619987 -15.323054 -16.303219 -15.053097 -15.373929
1.995000e+02 NaN -8.961030 -11.778330 -13.574642 -15.305004 -16.295796 -15.057592 -15.366870
2.005000e+02 NaN -8.946837 -11.773113 -13.547215 -15.283492 -16.290856 -15.112329 -15.334181
2.015000e+02 -3.681509 -8.832608 -11.747660 -13.542357 -15.260380 -16.280212 -15.080854 -15.291106
2.025000e+02 NaN -8.902238 -11.714280 -13.497831 -15.252932 -16.244043 -15.069835 -15.323521
2.035000e+02 NaN -8.936412 -11.733274 -13.501254 -15.238132 -16.238713 -15.056351 -15.286771
2.045000e+02 -2.752710 -8.849927 -11.655377 -13.450103 -15.210431 -16.225314 -14.980384 -15.261845
2.055000e+02 1.927636 -8.992704 -11.677391 -13.460732 -15.199706 -16.218992 -15.037866 -15.222613
2.065000e+02 NaN -8.854473 -11.587863 -13.406034 -15.191734 -16.205848 -14.996864 -15.228592
2.075000e+02 -1.814489 -8.876913 -11.615386 -13.390131 -15.181144 -16.173520 -14.983264 -15.202967
2.085000e+02 NaN -8.742383 -11.594363 -13.366591 -15.153643 -16.181675 -15.013181 -15.204260
2.095000e+02 -1.131426 -8.863253 -11.620038 -13.348660 -15.148792 -16.167367 -15.001864 -15.169454
2.105000e+02 NaN -8.823734 -11.613102 -13.324208 -15.125454 -16.153490 -14.998503 -15.159899
2.115000e+02 NaN -8.868452 -11.530515 -13.310144 -15.118743 -16.141906 -14.927593 -15.137134
2.125000e+02 0.822059 -8.768439 -11.558957 -13.282614 -15.097269 -16.137959 -14.938329 -15.167110
2.135000e+02 NaN -8.743762 -11.521479 -13.280200 -15.081137 -16.125661 -14.948819 -15.114513
2.145000e+02 NaN -8.902617 -11.518947 -13.247819 -15.072864 -16.095989 -14.956408 -15.134811
2.155000e+02 0.864834 -8.830196 -11.466691 -13.240427 -15.049973 -16.082950 -14.959008 -15.101588
2.165000e+02 NaN -8.824378 -11.480419 -13.211899 -15.038586 -16.078474 -14.877598 -15.066086
2.175000e+02 NaN -7.742417 -10.271285 -11.853624 -13.746818 -14.769926 -14.585653 -14.309831
2.185000e+02 NaN NaN -4.639747 -7.568505 NaN -9.690320 -12.622022 -10.501854
2.195000e+02 NaN NaN -3.383014 -6.901286 NaN -8.412343 -11.092114 -9.631611
2.205000e+02 NaN NaN -3.358754 -6.377474 NaN -7.414365 -10.150094 -8.623517
2.215000e+02 NaN NaN -1.786390 -4.748458 NaN -6.564637 -8.822883 -6.628242
2.225000e+02 NaN NaN NaN NaN NaN -6.047211 -8.286797 NaN
2.235000e+02 NaN NaN 1.096248 -3.354337 NaN -5.538140 -8.280343 -3.606392
2.245000e+02 NaN NaN NaN NaN NaN NaN -6.364176 NaN
2.255000e+02 NaN NaN NaN NaN NaN NaN -6.360256 NaN
2.265000e+02 NaN NaN NaN NaN NaN NaN NaN NaN
2.275000e+02 NaN NaN NaN NaN NaN NaN NaN NaN
2.285000e+02 NaN NaN NaN NaN NaN NaN NaN NaN
2.295000e+02 NaN NaN NaN NaN NaN NaN NaN NaN
2.305000e+02 NaN NaN NaN NaN NaN NaN NaN NaN
2.315000e+02 NaN NaN NaN NaN NaN NaN NaN NaN
2.325000e+02 NaN NaN NaN NaN NaN NaN NaN NaN
2.335000e+02 NaN NaN NaN NaN NaN NaN NaN NaN
2.345000e+02 NaN NaN NaN NaN NaN NaN NaN NaN
2.355000e+02 NaN NaN NaN NaN NaN NaN NaN NaN
2.365000e+02 NaN NaN NaN NaN NaN NaN NaN NaN
2.375000e+02 NaN NaN NaN NaN NaN NaN NaN NaN
2.385000e+02 NaN NaN NaN NaN NaN NaN NaN NaN
2.395000e+02 NaN NaN NaN NaN NaN NaN NaN NaN
2.405000e+02 NaN NaN NaN NaN NaN NaN NaN NaN
2.415000e+02 NaN NaN NaN NaN NaN NaN NaN NaN
2.425000e+02 NaN NaN NaN NaN NaN NaN NaN NaN
2.435000e+02 NaN NaN NaN NaN NaN NaN NaN NaN
2.445000e+02 NaN NaN NaN NaN NaN NaN NaN NaN
2.455000e+02 NaN NaN NaN NaN NaN NaN NaN NaN
2.465000e+02 NaN NaN NaN NaN NaN NaN NaN NaN
2.475000e+02 NaN NaN NaN NaN NaN NaN NaN NaN
2.485000e+02 NaN NaN NaN NaN NaN NaN NaN NaN
2.495000e+02 NaN NaN NaN NaN NaN NaN NaN NaN
