#Magnitudes for spectra_ddc25_artisnebular calculated by wsynphot
#with vega calibration file: https://archive.stsci.edu/hlsps/reference-atlases/cdbs/calspec/alpha_lyr_stis_003.fits 
#and with scipy 1D interpolation kind='cubic'.
#U,B,V,R,I are Generic Bessell filters and J, H, K are 2MASS filters, taken from http://svo2.cab.inta-csic.es/theory/fps/index.php 
#The spectra file used was last modified at: 2022-03-04 17:08:03 UTC
#and had md5 hash: e310661605e20fdf518ef176ce65e7b7
#
#NTIMES: 50
#NBANDS: 8
#time[d] U B V R I J H K
1.991600e+02 -9.409724 -11.731539 -12.575289 -12.778040 -13.433480 -13.312874 -13.017501 -12.113441
2.020300e+02 -9.324819 -11.655298 -12.498348 -12.733726 -13.401266 -13.295651 -13.022469 -12.052864
2.049300e+02 -9.257518 -11.582216 -12.425289 -12.676954 -13.351362 -13.269375 -13.000917 -12.004099
2.078700e+02 -9.188919 -11.523108 -12.358522 -12.628694 -13.295884 -13.228067 -12.963412 -11.953971
2.108600e+02 -9.100434 -11.439247 -12.285567 -12.578308 -13.259433 -13.209585 -12.961065 -11.876153
2.138900e+02 -9.018242 -11.364062 -12.201115 -12.520340 -13.200020 -13.163850 -12.952411 -11.836406
2.169700e+02 -8.934798 -11.305091 -12.134228 -12.463600 -13.146613 -13.121633 -12.908312 -11.809930
2.200900e+02 -8.856036 -11.228116 -12.061859 -12.415287 -13.109793 -13.087299 -12.885853 -11.696675
2.232500e+02 -8.808297 -11.153273 -11.988430 -12.352286 -13.057615 -13.051236 -12.894107 -11.662406
2.264600e+02 -8.705930 -11.067651 -11.906890 -12.289099 -13.000634 -13.011625 -12.875724 -11.597986
2.297100e+02 -8.621167 -11.005196 -11.835983 -12.239860 -12.954904 -12.949647 -12.841895 -11.594246
2.330100e+02 -8.582546 -10.936086 -11.766324 -12.189175 -12.907539 -12.901730 -12.808309 -11.575516
2.363600e+02 -8.474989 -10.876010 -11.702807 -12.147840 -12.853633 -12.855187 -12.748401 -11.563734
2.397600e+02 -8.390722 -10.779704 -11.620853 -12.093022 -12.811321 -12.831097 -12.748564 -11.412732
2.432100e+02 -8.277802 -10.700910 -11.540508 -12.038092 -12.754479 -12.792458 -12.722061 -11.419916
2.467000e+02 -8.250117 -10.608087 -11.458338 -11.980615 -12.702025 -12.760819 -12.719881 -11.289647
2.502500e+02 -8.152658 -10.526758 -11.374962 -11.910860 -12.638976 -12.717398 -12.704838 -11.224835
2.538500e+02 -8.050704 -10.455699 -11.300186 -11.845214 -12.570533 -12.655359 -12.650540 -11.210881
2.575000e+02 -7.969206 -10.392278 -11.232277 -11.802248 -12.511204 -12.614515 -12.614079 -11.181499
2.612000e+02 -7.893440 -10.280946 -11.154951 -11.741350 -12.472492 -12.574681 -12.616729 -11.089923
2.649500e+02 -7.787137 -10.196194 -11.067689 -11.665324 -12.415549 -12.521418 -12.612631 -11.006368
2.687600e+02 -7.712484 -10.107836 -10.990934 -11.604414 -12.354551 -12.482231 -12.562987 -10.945631
2.726200e+02 -7.609134 -10.041912 -10.918163 -11.546063 -12.287927 -12.412971 -12.522685 -10.939481
2.765400e+02 -7.543207 -9.929775 -10.837406 -11.485706 -12.237099 -12.386887 -12.515216 -10.858753
2.805100e+02 -7.448745 -9.835216 -10.742822 -11.416823 -12.168096 -12.341270 -12.494117 -10.774115
2.845500e+02 -7.346903 -9.750371 -10.662713 -11.347388 -12.093302 -12.301530 -12.464512 -10.683187
2.886400e+02 -7.309426 -9.693667 -10.598310 -11.277437 -12.026149 -12.221485 -12.402646 -10.656788
2.927900e+02 -7.201620 -9.612269 -10.526926 -11.227652 -11.975343 -12.165401 -12.371090 -10.675593
2.969900e+02 -7.103755 -9.485634 -10.430025 -11.156299 -11.922636 -12.133993 -12.363032 -10.533505
3.012600e+02 -6.989348 -9.395441 -10.360560 -11.091827 -11.853750 -12.090834 -12.331228 -10.423666
3.055900e+02 -6.896710 -9.292649 -10.271741 -11.012274 -11.783059 -12.050091 -12.319171 -10.419719
3.099900e+02 -6.815125 -9.161265 -10.178354 -10.927033 -11.694582 -11.996883 -12.290895 -10.280485
3.144400e+02 -6.706801 -9.072385 -10.084845 -10.836599 -11.605614 -11.947501 -12.256529 -10.171624
3.189600e+02 -6.557426 -9.031692 -10.018955 -10.764963 -11.524563 -11.863713 -12.172425 -10.180560
3.235500e+02 -6.525550 -8.982471 -9.962179 -10.729882 -11.473805 -11.806309 -12.093206 -10.215273
3.281900e+02 -6.377095 -8.827364 -9.866331 -10.667008 -11.432841 -11.787134 -12.114322 -10.113914
3.329100e+02 -6.364402 -8.668979 -9.764397 -10.558458 -11.332115 -11.745937 -12.106253 -9.922855
3.377000e+02 -6.166835 -8.533812 -9.675664 -10.450824 -11.221710 -11.679173 -12.083788 -9.780255
3.425500e+02 -6.102976 -8.437231 -9.570278 -10.358259 -11.124484 -11.615051 -12.026576 -9.636632
3.474800e+02 -6.006135 -8.400367 -9.496968 -10.305464 -11.059124 -11.527029 -11.951079 -9.751305
3.524700e+02 -5.865581 -8.319571 -9.441818 -10.238495 -10.994017 -11.470096 -11.897669 -9.699841
3.575400e+02 -5.771870 -8.206315 -9.345412 -10.152953 -10.912714 -11.414450 -11.828138 -9.569924
3.626800e+02 -5.694811 -8.036788 -9.249732 -10.034070 -10.793976 -11.368806 -11.809478 -9.458620
3.678900e+02 -5.676858 -7.871516 -9.110530 -9.916760 -10.684805 -11.323164 -11.783903 -9.227663
3.731800e+02 -5.522308 -7.708368 -9.018926 -9.792818 -10.550259 -11.254685 -11.736923 -9.182506
3.785400e+02 -5.392664 -7.589306 -8.911883 -9.704421 -10.463805 -11.177230 -11.685681 -9.082265
3.839800e+02 -4.451628 -6.522943 -7.853576 -8.571659 -9.325781 -10.073477 -10.568095 -7.962426
3.895000e+02 NaN 2.289962 NaN NaN NaN NaN NaN NaN
3.951000e+02 NaN NaN NaN NaN NaN NaN NaN NaN
4.007800e+02 NaN NaN NaN NaN NaN NaN NaN NaN
