#Magnitudes for spectra_ddc25_cmfgen calculated by wsynphot
#with vega calibration file: https://archive.stsci.edu/hlsps/reference-atlases/cdbs/calspec/alpha_lyr_stis_003.fits 
#and with scipy 1D interpolation kind='cubic'.
#U,B,V,R,I are Generic Bessell filters and J, H, K are 2MASS filters, taken from http://svo2.cab.inta-csic.es/theory/fps/index.php 
#The spectra file used was last modified at: 2022-03-04 17:15:44 UTC
#and had md5 hash: a61e73575a04d2d9db325cf8746f30e3
#
#NTIMES: 59
#NBANDS: 8
#time[d] U B V R I J H K
1.300000e+00 -3.017578 -5.172432 -7.963945 -9.938026 -10.312820 -11.764486 -11.901441 -12.329686
1.430000e+00 -3.104795 -5.617576 -8.368317 -10.284660 -10.624389 -12.022536 -12.119206 -12.531338
1.573000e+00 -3.342260 -6.179445 -8.832974 -10.679079 -10.971951 -12.310901 -12.370162 -12.759300
1.730000e+00 -3.714538 -6.844559 -9.352300 -11.123630 -11.354043 -12.621266 -12.652602 -13.015260
1.900000e+00 -4.287721 -7.593896 -9.897713 -11.601084 -11.753809 -12.937736 -12.959944 -13.278014
2.090000e+00 -5.073159 -8.386139 -10.504961 -12.118686 -12.185345 -13.257638 -13.282694 -13.536450
2.300000e+00 -5.846372 -9.117678 -11.187715 -12.641214 -12.641649 -13.566985 -13.606926 -13.793646
2.530000e+00 -6.589249 -9.757078 -11.808717 -13.092650 -13.066592 -13.856459 -13.923218 -14.057980
2.783000e+00 -7.421334 -10.361185 -12.342731 -13.489300 -13.454186 -14.137556 -14.229164 -14.330790
3.061000e+00 -8.359121 -10.955091 -12.825065 -13.848652 -13.811929 -14.417815 -14.523675 -14.605997
3.367000e+00 -9.288668 -11.532279 -13.274330 -14.184907 -14.148260 -14.694280 -14.806862 -14.878128
3.704000e+00 -10.096437 -12.056527 -13.684907 -14.502609 -14.463537 -14.964264 -15.076946 -15.142582
4.074000e+00 -10.770196 -12.522186 -14.057333 -14.802440 -14.757694 -15.223273 -15.332399 -15.393656
4.481000e+00 -11.341365 -12.937630 -14.400110 -15.087195 -15.035169 -15.471542 -15.575177 -15.633292
4.929000e+00 -11.820791 -13.304807 -14.716485 -15.354427 -15.295436 -15.708485 -15.804759 -15.859261
5.422000e+00 -12.236071 -13.636601 -15.015435 -15.605991 -15.543051 -15.935368 -16.023096 -16.073650
5.964000e+00 -12.592700 -13.932289 -15.292396 -15.839963 -15.778628 -16.151595 -16.230258 -16.276001
6.560000e+00 -12.902242 -14.196354 -15.547636 -16.059071 -16.004229 -16.358860 -16.427743 -16.469273
7.216000e+00 -13.169768 -14.432540 -15.783051 -16.268280 -16.222859 -16.558406 -16.617426 -16.656156
7.938000e+00 -13.406326 -14.651006 -16.006727 -16.475284 -16.438655 -16.754085 -16.802699 -16.839752
8.732000e+00 -13.634831 -14.868368 -16.228748 -16.685328 -16.655511 -16.948782 -16.985699 -17.019689
9.600000e+00 -13.874105 -15.098581 -16.449054 -16.888928 -16.869081 -17.113846 -17.131887 -17.158844
1.056000e+01 -14.137591 -15.352591 -16.687207 -17.113982 -17.094779 -17.307242 -17.309569 -17.324803
1.162000e+01 -14.415232 -15.613849 -16.922074 -17.334739 -17.312354 -17.491244 -17.488916 -17.488477
1.278000e+01 -14.695833 -15.872330 -17.147748 -17.542318 -17.519231 -17.654220 -17.641243 -17.614006
1.406000e+01 -14.980080 -16.112234 -17.358750 -17.740133 -17.711897 -17.823358 -17.811445 -17.756438
1.547000e+01 -15.215274 -16.316090 -17.536916 -17.897964 -17.873513 -17.929328 -17.922246 -17.824067
1.702000e+01 -15.286726 -16.398409 -17.655920 -18.017515 -18.017642 -17.995488 -17.996501 -17.847744
1.872000e+01 -15.314747 -16.453934 -17.745727 -18.086739 -18.105047 -18.017894 -18.057594 -17.913106
2.059000e+01 -15.306290 -16.458495 -17.780663 -18.122334 -18.179607 -17.999649 -18.099940 -17.925286
2.265000e+01 -15.234271 -16.392114 -17.763856 -18.118685 -18.227880 -17.938070 -18.125660 -17.933833
2.491000e+01 -15.112611 -16.266731 -17.697025 -18.068459 -18.241867 -17.797185 -18.122069 -17.928514
2.740000e+01 -14.954295 -16.087845 -17.572019 -17.959856 -18.214461 -17.567617 -18.074068 -17.895861
3.014000e+01 -14.786129 -15.857165 -17.367767 -17.798446 -18.156862 -17.439311 -18.030955 -17.880378
3.315000e+01 -14.604454 -15.582082 -17.097752 -17.592265 -18.025115 -17.496036 -17.991631 -17.899718
3.646000e+01 -14.438095 -15.320303 -16.799550 -17.326732 -17.819773 -17.452203 -17.822681 -17.755892
4.011000e+01 -14.320225 -15.110182 -16.525531 -17.068077 -17.619512 -17.267368 -17.630781 -17.538461
4.412000e+01 -14.329543 -14.949207 -16.313526 -16.850656 -17.433478 -16.906239 -17.399006 -17.192340
4.853000e+01 -14.326960 -14.843174 -16.146698 -16.658114 -17.239391 -16.492728 -17.138940 -16.823388
5.338000e+01 -14.294391 -14.772963 -16.008958 -16.486961 -17.040507 -16.118848 -16.897712 -16.528747
5.872000e+01 -14.252819 -14.715624 -15.882191 -16.323844 -16.838516 -15.744768 -16.668102 -16.266300
6.459000e+01 -14.196318 -14.658930 -15.750526 -16.158623 -16.632468 -15.364148 -16.436570 -16.010138
7.105000e+01 -14.102522 -14.589921 -15.605111 -15.983205 -16.421941 -14.978156 -16.188089 -15.742972
7.816000e+01 -13.979290 -14.505064 -15.439144 -15.789858 -16.205999 -14.590161 -15.912446 -15.453388
8.600000e+01 -13.807257 -14.395399 -15.247760 -15.571025 -15.983858 -14.216972 -15.597768 -15.128541
9.460000e+01 -13.601765 -14.265734 -15.023030 -15.340068 -15.755742 -13.893130 -15.246239 -14.770394
1.041000e+02 -13.360994 -14.104605 -14.786664 -15.054859 -15.520773 -13.639442 -14.856824 -14.372853
1.145000e+02 -13.075513 -13.909429 -14.504207 -14.758107 -15.272066 -13.464888 -14.454579 -13.954693
1.260000e+02 -12.834194 -13.727333 -14.224287 -14.415804 -15.015176 -13.344052 -14.118680 -13.563484
1.386000e+02 -12.490834 -13.473627 -13.902495 -14.054822 -14.743256 -13.242159 -13.810856 -13.172606
1.525000e+02 -12.100688 -13.171521 -13.546651 -13.685523 -14.482718 -13.116069 -13.567615 -12.809829
1.678000e+02 -11.672537 -12.835334 -13.170350 -13.333064 -14.228694 -12.948146 -13.372153 -12.480519
1.846000e+02 -11.201655 -12.451269 -12.762480 -13.003428 -13.976892 -12.742304 -13.203254 -12.163280
2.031000e+02 -10.708957 -12.037978 -12.337375 -12.684103 -13.714284 -12.508994 -13.042847 -11.850254
2.234000e+02 -10.206362 -11.589738 -11.887418 -12.361908 -13.434159 -12.267137 -12.881166 -11.519745
2.458000e+02 -9.716347 -11.106364 -11.419842 -12.031562 -13.162704 -12.063305 -12.713028 -11.171634
2.704000e+02 -9.223131 -10.580816 -10.918019 -11.677638 -12.829868 -11.846444 -12.530171 -10.739096
2.974000e+02 -8.742473 -10.009739 -10.360720 -11.274660 -12.429687 -11.612468 -12.323620 -10.258043
3.200000e+02 -8.352020 -9.490714 -9.847607 -10.903139 -12.056431 -11.405902 -12.127686 -9.780721
